#FORMAT	     : EMSA/MAS Spectral Data File
#VERSION     : 1.0
#TITLE       : BG_cal
#DATE        : 
#TIME        : 
#OWNER       : 
#NPOINTS     : 1024
#NCOLUMNS    : 1
#XUNITS      : eV
#YUNITS      : 
#DATATYPE    : XY
#XPERCHAN    : 5.000000e-001
#OFFSET      : 3.065000e+002
#SPECTRUM    : Spectral Data Starts Here
3.065000e+002, 4.016000e+001
3.070000e+002, 4.348000e+001
3.075000e+002, 5.536800e+001
3.080000e+002, 4.936572e+001
3.085000e+002, 5.528000e+001
3.090000e+002, 5.310182e+001
3.095000e+002, 5.759692e+001
3.100000e+002, 5.845600e+001
3.105000e+002, 6.214353e+001
3.110000e+002, 6.226315e+001
3.115000e+002, 6.007809e+001
3.120000e+002, 5.782957e+001
3.125000e+002, 5.577440e+001
3.130000e+002, 5.533333e+001
3.135000e+002, 5.597793e+001
3.140000e+002, 5.616000e+001
3.145000e+002, 5.599448e+001
3.150000e+002, 5.732552e+001
3.155000e+002, 5.563173e+001
3.160000e+002, 5.531172e+001
3.165000e+002, 5.638069e+001
3.170000e+002, 5.732966e+001
3.175000e+002, 5.734345e+001
3.180000e+002, 5.567724e+001
3.185000e+002, 5.602207e+001
3.190000e+002, 5.621241e+001
3.195000e+002, 5.533517e+001
3.200000e+002, 5.309517e+001
3.205000e+002, 5.132552e+001
3.210000e+002, 5.048966e+001
3.215000e+002, 4.829655e+001
3.220000e+002, 4.884414e+001
3.225000e+002, 4.855310e+001
3.230000e+002, 4.863862e+001
3.235000e+002, 4.896828e+001
3.240000e+002, 4.989793e+001
3.245000e+002, 5.035587e+001
3.250000e+002, 4.863862e+001
3.255000e+002, 4.893103e+001
3.260000e+002, 5.061241e+001
3.265000e+002, 5.273241e+001
3.270000e+002, 5.222069e+001
3.275000e+002, 5.152000e+001
3.280000e+002, 5.358207e+001
3.285000e+002, 5.333104e+001
3.290000e+002, 5.299034e+001
3.295000e+002, 5.276276e+001
3.300000e+002, 5.447586e+001
3.305000e+002, 5.585931e+001
3.310000e+002, 5.611172e+001
3.315000e+002, 5.729517e+001
3.320000e+002, 5.756828e+001
3.325000e+002, 5.970069e+001
3.330000e+002, 5.956000e+001
3.335000e+002, 6.180690e+001
3.340000e+002, 6.500828e+001
3.345000e+002, 6.543172e+001
3.350000e+002, 6.824689e+001
3.355000e+002, 7.187173e+001
3.360000e+002, 7.324276e+001
3.365000e+002, 7.500552e+001
3.370000e+002, 7.800828e+001
3.375000e+002, 7.820966e+001
3.380000e+002, 8.008552e+001
3.385000e+002, 8.250069e+001
3.390000e+002, 8.551723e+001
3.395000e+002, 8.945242e+001
3.400000e+002, 9.257241e+001
3.405000e+002, 9.320552e+001
3.410000e+002, 9.474068e+001
3.415000e+002, 9.735034e+001
3.420000e+002, 9.940414e+001
3.425000e+002, 1.020359e+002
3.430000e+002, 1.049021e+002
3.435000e+002, 1.099821e+002
3.440000e+002, 1.128303e+002
3.445000e+002, 1.154524e+002
3.450000e+002, 1.172331e+002
3.455000e+002, 1.194441e+002
3.460000e+002, 1.242303e+002
3.465000e+002, 1.278193e+002
3.470000e+002, 1.301434e+002
3.475000e+002, 1.347269e+002
3.480000e+002, 1.371793e+002
3.485000e+002, 1.403255e+002
3.490000e+002, 1.458166e+002
3.495000e+002, 1.512455e+002
3.500000e+002, 1.553655e+002
3.505000e+002, 1.605931e+002
3.510000e+002, 1.652896e+002
3.515000e+002, 1.694690e+002
3.520000e+002, 1.759779e+002
3.525000e+002, 1.817462e+002
3.530000e+002, 1.867614e+002
3.535000e+002, 1.920165e+002
3.540000e+002, 1.974910e+002
3.545000e+002, 2.033448e+002
3.550000e+002, 2.112773e+002
3.555000e+002, 2.162621e+002
3.560000e+002, 2.241531e+002
3.565000e+002, 2.314483e+002
3.570000e+002, 2.363986e+002
3.575000e+002, 2.445090e+002
3.580000e+002, 2.501959e+002
3.585000e+002, 2.569117e+002
3.590000e+002, 2.643655e+002
3.595000e+002, 2.732207e+002
3.600000e+002, 2.808152e+002
3.605000e+002, 2.869131e+002
3.610000e+002, 2.953462e+002
3.615000e+002, 3.060455e+002
3.620000e+002, 3.148745e+002
3.625000e+002, 3.244276e+002
3.630000e+002, 3.333559e+002
3.635000e+002, 3.430469e+002
3.640000e+002, 3.512979e+002
3.645000e+002, 3.614096e+002
3.650000e+002, 3.699904e+002
3.655000e+002, 3.783448e+002
3.660000e+002, 3.870110e+002
3.665000e+002, 3.970869e+002
3.670000e+002, 4.067034e+002
3.675000e+002, 4.173241e+002
3.680000e+002, 4.265379e+002
3.685000e+002, 4.380814e+002
3.690000e+002, 4.486538e+002
3.695000e+002, 4.586414e+002
3.700000e+002, 4.707669e+002
3.705000e+002, 4.800138e+002
3.710000e+002, 4.906896e+002
3.715000e+002, 5.027917e+002
3.720000e+002, 5.144689e+002
3.725000e+002, 5.266221e+002
3.730000e+002, 5.388855e+002
3.735000e+002, 5.498924e+002
3.740000e+002, 5.596304e+002
3.745000e+002, 5.713420e+002
3.750000e+002, 5.835076e+002
3.755000e+002, 5.951379e+002
3.760000e+002, 6.059462e+002
3.765000e+002, 6.171834e+002
3.770000e+002, 6.272496e+002
3.775000e+002, 6.401848e+002
3.780000e+002, 6.508055e+002
3.785000e+002, 6.624290e+002
3.790000e+002, 6.719987e+002
3.795000e+002, 6.849973e+002
3.800000e+002, 6.983696e+002
3.805000e+002, 7.121504e+002
3.810000e+002, 7.250690e+002
3.815000e+002, 7.370593e+002
3.820000e+002, 7.495159e+002
3.825000e+002, 7.636649e+002
3.830000e+002, 7.754539e+002
3.835000e+002, 7.891035e+002
3.840000e+002, 8.031035e+002
3.845000e+002, 8.175145e+002
3.850000e+002, 8.312441e+002
3.855000e+002, 8.450262e+002
3.860000e+002, 8.588483e+002
3.865000e+002, 8.717932e+002
3.870000e+002, 8.828331e+002
3.875000e+002, 8.955366e+002
3.880000e+002, 9.100856e+002
3.885000e+002, 9.253876e+002
3.890000e+002, 9.416221e+002
3.895000e+002, 9.539738e+002
3.900000e+002, 9.656883e+002
3.905000e+002, 9.797366e+002
3.910000e+002, 9.947904e+002
3.915000e+002, 1.008134e+003
3.920000e+002, 1.020309e+003
3.925000e+002, 1.035514e+003
3.930000e+002, 1.048837e+003
3.935000e+002, 1.062218e+003
3.940000e+002, 1.077099e+003
3.945000e+002, 1.091186e+003
3.950000e+002, 1.105995e+003
3.955000e+002, 1.119181e+003
3.960000e+002, 1.134259e+003
3.965000e+002, 1.149850e+003
3.970000e+002, 1.165913e+003
3.975000e+002, 1.180695e+003
3.980000e+002, 1.194679e+003
3.985000e+002, 1.208248e+003
3.990000e+002, 1.223055e+003
3.995000e+002, 1.238128e+003
4.000000e+002, 1.253215e+003
4.005000e+002, 1.266819e+003
4.010000e+002, 1.280345e+003
4.015000e+002, 1.296026e+003
4.020000e+002, 1.311786e+003
4.025000e+002, 1.326855e+003
4.030000e+002, 1.340484e+003
4.035000e+002, 1.354099e+003
4.040000e+002, 1.369995e+003
4.045000e+002, 1.386622e+003
4.050000e+002, 1.401986e+003
4.055000e+002, 1.415163e+003
4.060000e+002, 1.433247e+003
4.065000e+002, 1.449023e+003
4.070000e+002, 1.465474e+003
4.075000e+002, 1.480241e+003
4.080000e+002, 1.496069e+003
4.085000e+002, 1.509941e+003
4.090000e+002, 1.524990e+003
4.095000e+002, 1.539101e+003
4.100000e+002, 1.554025e+003
4.105000e+002, 1.567470e+003
4.110000e+002, 1.581724e+003
4.115000e+002, 1.594639e+003
4.120000e+002, 1.607305e+003
4.125000e+002, 1.621346e+003
4.130000e+002, 1.633214e+003
4.135000e+002, 1.644934e+003
4.140000e+002, 1.657117e+003
4.145000e+002, 1.671017e+003
4.150000e+002, 1.683306e+003
4.155000e+002, 1.698673e+003
4.160000e+002, 1.713828e+003
4.165000e+002, 1.725517e+003
4.170000e+002, 1.736374e+003
4.175000e+002, 1.750457e+003
4.180000e+002, 1.761932e+003
4.185000e+002, 1.777361e+003
4.190000e+002, 1.791021e+003
4.195000e+002, 1.804823e+003
4.200000e+002, 1.821023e+003
4.205000e+002, 1.836995e+003
4.210000e+002, 1.851837e+003
4.215000e+002, 1.864048e+003
4.220000e+002, 1.878644e+003
4.225000e+002, 1.895404e+003
4.230000e+002, 1.911302e+003
4.235000e+002, 1.925684e+003
4.240000e+002, 1.940570e+003
4.245000e+002, 1.956479e+003
4.250000e+002, 1.970759e+003
4.255000e+002, 1.983399e+003
4.260000e+002, 1.996101e+003
4.265000e+002, 2.012182e+003
4.270000e+002, 2.025484e+003
4.275000e+002, 2.042502e+003
4.280000e+002, 2.058344e+003
4.285000e+002, 2.073611e+003
4.290000e+002, 2.087845e+003
4.295000e+002, 2.103565e+003
4.300000e+002, 2.117672e+003
4.305000e+002, 2.130765e+003
4.310000e+002, 2.147746e+003
4.315000e+002, 2.164494e+003
4.320000e+002, 2.178357e+003
4.325000e+002, 2.194472e+003
4.330000e+002, 2.210335e+003
4.335000e+002, 2.225879e+003
4.340000e+002, 2.238269e+003
4.345000e+002, 2.251285e+003
4.350000e+002, 2.260728e+003
4.355000e+002, 2.271085e+003
4.360000e+002, 2.283005e+003
4.365000e+002, 2.295637e+003
4.370000e+002, 2.306229e+003
4.375000e+002, 2.316219e+003
4.380000e+002, 2.327755e+003
4.385000e+002, 2.338745e+003
4.390000e+002, 2.347800e+003
4.395000e+002, 2.357730e+003
4.400000e+002, 2.369530e+003
4.405000e+002, 2.380834e+003
4.410000e+002, 2.390930e+003
4.415000e+002, 2.401975e+003
4.420000e+002, 2.411417e+003
4.425000e+002, 2.421240e+003
4.430000e+002, 2.430437e+003
4.435000e+002, 2.438964e+003
4.440000e+002, 2.448000e+003
4.445000e+002, 2.458789e+003
4.450000e+002, 2.467726e+003
4.455000e+002, 2.476390e+003
4.460000e+002, 2.486195e+003
4.465000e+002, 2.497201e+003
4.470000e+002, 2.504932e+003
4.475000e+002, 2.511499e+003
4.480000e+002, 2.519832e+003
4.485000e+002, 2.528479e+003
4.490000e+002, 2.536360e+003
4.495000e+002, 2.546712e+003
4.500000e+002, 2.556850e+003
4.505000e+002, 2.566069e+003
4.510000e+002, 2.577201e+003
4.515000e+002, 2.587062e+003
4.520000e+002, 2.596679e+003
4.525000e+002, 2.604501e+003
4.530000e+002, 2.614565e+003
4.535000e+002, 2.624279e+003
4.540000e+002, 2.634319e+003
4.545000e+002, 2.642912e+003
4.550000e+002, 2.651101e+003
4.555000e+002, 2.659924e+003
4.560000e+002, 2.667280e+003
4.565000e+002, 2.673893e+003
4.570000e+002, 2.679349e+003
4.575000e+002, 2.687742e+003
4.580000e+002, 2.695903e+003
4.585000e+002, 2.703586e+003
4.590000e+002, 2.708334e+003
4.595000e+002, 2.714487e+003
4.600000e+002, 2.720314e+003
4.605000e+002, 2.724801e+003
4.610000e+002, 2.726840e+003
4.615000e+002, 2.730546e+003
4.620000e+002, 2.729290e+003
4.625000e+002, 2.715841e+003
4.630000e+002, 2.716014e+003
4.635000e+002, 2.715418e+003
4.640000e+002, 2.713786e+003
4.645000e+002, 2.711917e+003
4.650000e+002, 2.708643e+003
4.655000e+002, 2.702430e+003
4.660000e+002, 2.696506e+003
4.665000e+002, 2.687756e+003
4.670000e+002, 2.680748e+003
4.675000e+002, 2.671174e+003
4.680000e+002, 2.660720e+003
4.685000e+002, 2.651484e+003
4.690000e+002, 2.639422e+003
4.695000e+002, 2.627225e+003
4.700000e+002, 2.613068e+003
4.705000e+002, 2.598328e+003
4.710000e+002, 2.582919e+003
4.715000e+002, 2.568721e+003
4.720000e+002, 2.549721e+003
4.725000e+002, 2.531268e+003
4.730000e+002, 2.512866e+003
4.735000e+002, 2.494821e+003
4.740000e+002, 2.476716e+003
4.745000e+002, 2.453697e+003
4.750000e+002, 2.432039e+003
4.755000e+002, 2.409877e+003
4.760000e+002, 2.387543e+003
4.765000e+002, 2.367543e+003
4.770000e+002, 2.359890e+003
4.775000e+002, 2.338575e+003
4.780000e+002, 2.315308e+003
4.785000e+002, 2.291473e+003
4.790000e+002, 2.267810e+003
4.795000e+002, 2.245608e+003
4.800000e+002, 2.222720e+003
4.805000e+002, 2.199084e+003
4.810000e+002, 2.179017e+003
4.815000e+002, 2.158495e+003
4.820000e+002, 2.137057e+003
4.825000e+002, 2.116396e+003
4.830000e+002, 2.095085e+003
4.835000e+002, 2.076721e+003
4.840000e+002, 2.056865e+003
4.845000e+002, 2.037385e+003
4.850000e+002, 2.019039e+003
4.855000e+002, 2.001172e+003
4.860000e+002, 1.981412e+003
4.865000e+002, 1.963499e+003
4.870000e+002, 1.946539e+003
4.875000e+002, 1.929502e+003
4.880000e+002, 1.910637e+003
4.885000e+002, 1.892214e+003
4.890000e+002, 1.877451e+003
4.895000e+002, 1.860365e+003
4.900000e+002, 1.845000e+003
4.905000e+002, 1.829666e+003
4.910000e+002, 1.816945e+003
4.915000e+002, 1.801688e+003
4.920000e+002, 1.787204e+003
4.925000e+002, 1.774992e+003
4.930000e+002, 1.763040e+003
4.935000e+002, 1.750381e+003
4.940000e+002, 1.737938e+003
4.945000e+002, 1.724259e+003
4.950000e+002, 1.712228e+003
4.955000e+002, 1.701075e+003
4.960000e+002, 1.687261e+003
4.965000e+002, 1.674503e+003
4.970000e+002, 1.663170e+003
4.975000e+002, 1.653195e+003
4.980000e+002, 1.641029e+003
4.985000e+002, 1.630483e+003
4.990000e+002, 1.620912e+003
4.995000e+002, 1.611834e+003
5.000000e+002, 1.602701e+003
5.005000e+002, 1.592534e+003
5.010000e+002, 1.584288e+003
5.015000e+002, 1.574850e+003
5.020000e+002, 1.563920e+003
5.025000e+002, 1.556415e+003
5.030000e+002, 1.547297e+003
5.035000e+002, 1.539742e+003
5.040000e+002, 1.533891e+003
5.045000e+002, 1.527679e+003
5.050000e+002, 1.522272e+003
5.055000e+002, 1.514909e+003
5.060000e+002, 1.509305e+003
5.065000e+002, 1.501919e+003
5.070000e+002, 1.494412e+003
5.075000e+002, 1.486934e+003
5.080000e+002, 1.479948e+003
5.085000e+002, 1.473444e+003
5.090000e+002, 1.468909e+003
5.095000e+002, 1.463663e+003
5.100000e+002, 1.455589e+003
5.105000e+002, 1.450641e+003
5.110000e+002, 1.444635e+003
5.115000e+002, 1.438730e+003
5.120000e+002, 1.429215e+003
5.125000e+002, 1.423393e+003
5.130000e+002, 1.417906e+003
5.135000e+002, 1.410375e+003
5.140000e+002, 1.405117e+003
5.145000e+002, 1.399680e+003
5.150000e+002, 1.395520e+003
5.155000e+002, 1.391288e+003
5.160000e+002, 1.385385e+003
5.165000e+002, 1.382527e+003
5.170000e+002, 1.376429e+003
5.175000e+002, 1.374080e+003
5.180000e+002, 1.367745e+003
5.185000e+002, 1.359596e+003
5.190000e+002, 1.353146e+003
5.195000e+002, 1.348808e+003
5.200000e+002, 1.341303e+003
5.205000e+002, 1.335997e+003
5.210000e+002, 1.331393e+003
5.215000e+002, 1.326077e+003
5.220000e+002, 1.320268e+003
5.225000e+002, 1.317199e+003
5.230000e+002, 1.311396e+003
5.235000e+002, 1.307359e+003
5.240000e+002, 1.301400e+003
5.245000e+002, 1.298617e+003
5.250000e+002, 1.290834e+003
5.255000e+002, 1.287611e+003
5.260000e+002, 1.283763e+003
5.265000e+002, 1.282735e+003
5.270000e+002, 1.277222e+003
5.275000e+002, 1.273240e+003
5.280000e+002, 1.270210e+003
5.285000e+002, 1.266746e+003
5.290000e+002, 1.262023e+003
5.295000e+002, 1.255988e+003
5.300000e+002, 1.252137e+003
5.305000e+002, 1.249080e+003
5.310000e+002, 1.243895e+003
5.315000e+002, 1.239589e+003
5.320000e+002, 1.234000e+003
5.325000e+002, 1.230579e+003
5.330000e+002, 1.226396e+003
5.335000e+002, 1.223301e+003
5.340000e+002, 1.216474e+003
5.345000e+002, 1.212854e+003
5.350000e+002, 1.206727e+003
5.355000e+002, 1.204382e+003
5.360000e+002, 1.203357e+003
5.365000e+002, 1.201025e+003
5.370000e+002, 1.196000e+003
5.375000e+002, 1.191760e+003
5.380000e+002, 1.189233e+003
5.385000e+002, 1.186097e+003
5.390000e+002, 1.182163e+003
5.395000e+002, 1.181974e+003
5.400000e+002, 1.178568e+003
5.405000e+002, 1.174334e+003
5.410000e+002, 1.167661e+003
5.415000e+002, 1.165330e+003
5.420000e+002, 1.162543e+003
5.425000e+002, 1.158879e+003
5.430000e+002, 1.153694e+003
5.435000e+002, 1.150717e+003
5.440000e+002, 1.148564e+003
5.445000e+002, 1.141626e+003
5.450000e+002, 1.138450e+003
5.455000e+002, 1.135927e+003
5.460000e+002, 1.131444e+003
5.465000e+002, 1.128090e+003
5.470000e+002, 1.123366e+003
5.475000e+002, 1.121077e+003
5.480000e+002, 1.116890e+003
5.485000e+002, 1.113190e+003
5.490000e+002, 1.109407e+003
5.495000e+002, 1.107490e+003
5.500000e+002, 1.102454e+003
5.505000e+002, 1.095978e+003
5.510000e+002, 1.091324e+003
5.515000e+002, 1.086701e+003
5.520000e+002, 1.083255e+003
5.525000e+002, 1.076636e+003
5.530000e+002, 1.073308e+003
5.535000e+002, 1.069914e+003
5.540000e+002, 1.066659e+003
5.545000e+002, 1.061193e+003
5.550000e+002, 1.056866e+003
5.555000e+002, 1.054981e+003
5.560000e+002, 1.052717e+003
5.565000e+002, 1.047717e+003
5.570000e+002, 1.043979e+003
5.575000e+002, 1.040186e+003
5.580000e+002, 1.037161e+003
5.585000e+002, 1.035543e+003
5.590000e+002, 1.032094e+003
5.595000e+002, 1.027571e+003
5.600000e+002, 1.024154e+003
5.605000e+002, 1.022546e+003
5.610000e+002, 1.019971e+003
5.615000e+002, 1.016917e+003
5.620000e+002, 1.015327e+003
5.625000e+002, 1.013228e+003
5.630000e+002, 1.011342e+003
5.635000e+002, 1.008222e+003
5.640000e+002, 1.004039e+003
5.645000e+002, 1.000065e+003
5.650000e+002, 9.972332e+002
5.655000e+002, 9.923228e+002
5.660000e+002, 9.905034e+002
5.665000e+002, 9.877021e+002
5.670000e+002, 9.836924e+002
5.675000e+002, 9.799296e+002
5.680000e+002, 9.764731e+002
5.685000e+002, 9.719021e+002
5.690000e+002, 9.690359e+002
5.695000e+002, 9.660813e+002
5.700000e+002, 9.627696e+002
5.705000e+002, 9.591959e+002
5.710000e+002, 9.579021e+002
5.715000e+002, 9.569613e+002
5.720000e+002, 9.528083e+002
5.725000e+002, 9.490221e+002
5.730000e+002, 9.463200e+002
5.735000e+002, 9.467490e+002
5.740000e+002, 9.441062e+002
5.745000e+002, 9.410207e+002
5.750000e+002, 9.375461e+002
5.755000e+002, 9.327200e+002
5.760000e+002, 9.319890e+002
5.765000e+002, 9.291283e+002
5.770000e+002, 9.274069e+002
5.775000e+002, 9.248069e+002
5.780000e+002, 9.236510e+002
5.785000e+002, 9.227131e+002
5.790000e+002, 9.222813e+002
5.795000e+002, 9.220952e+002
5.800000e+002, 9.234979e+002
5.805000e+002, 9.213310e+002
5.810000e+002, 9.202759e+002
5.815000e+002, 9.201379e+002
5.820000e+002, 9.186110e+002
5.825000e+002, 9.178524e+002
5.830000e+002, 9.187145e+002
5.835000e+002, 9.182262e+002
5.840000e+002, 9.175931e+002
5.845000e+002, 9.177876e+002
5.850000e+002, 9.183035e+002
5.855000e+002, 9.153504e+002
5.860000e+002, 9.131987e+002
5.865000e+002, 9.140910e+002
5.870000e+002, 9.135544e+002
5.875000e+002, 9.129490e+002
5.880000e+002, 9.112717e+002
5.885000e+002, 9.112056e+002
5.890000e+002, 9.103655e+002
5.895000e+002, 9.086579e+002
5.900000e+002, 9.102966e+002
5.905000e+002, 9.079200e+002
5.910000e+002, 9.068813e+002
5.915000e+002, 9.048828e+002
5.920000e+002, 9.045449e+002
5.925000e+002, 9.045421e+002
5.930000e+002, 9.032924e+002
5.935000e+002, 9.025131e+002
5.940000e+002, 9.014883e+002
5.945000e+002, 9.019241e+002
5.950000e+002, 9.039766e+002
5.955000e+002, 9.042304e+002
5.960000e+002, 9.032938e+002
5.965000e+002, 9.045848e+002
5.970000e+002, 9.030276e+002
5.975000e+002, 9.010910e+002
5.980000e+002, 9.013379e+002
5.985000e+002, 9.035104e+002
5.990000e+002, 9.036758e+002
5.995000e+002, 9.009434e+002
6.000000e+002, 9.028731e+002
6.005000e+002, 9.038621e+002
6.010000e+002, 9.057545e+002
6.015000e+002, 9.075187e+002
6.020000e+002, 9.074827e+002
6.025000e+002, 9.092276e+002
6.030000e+002, 9.111573e+002
6.035000e+002, 9.124827e+002
6.040000e+002, 9.159613e+002
6.045000e+002, 9.167600e+002
6.050000e+002, 9.206566e+002
6.055000e+002, 9.224483e+002
6.060000e+002, 9.239573e+002
6.065000e+002, 9.256428e+002
6.070000e+002, 9.282607e+002
6.075000e+002, 9.298455e+002
6.080000e+002, 9.330000e+002
6.085000e+002, 9.344290e+002
6.090000e+002, 9.349462e+002
6.095000e+002, 9.367834e+002
6.100000e+002, 9.390552e+002
6.105000e+002, 9.450731e+002
6.110000e+002, 9.473462e+002
6.115000e+002, 9.520856e+002
6.120000e+002, 9.571296e+002
6.125000e+002, 9.616414e+002
6.130000e+002, 9.646938e+002
6.135000e+002, 9.702028e+002
6.140000e+002, 9.764041e+002
6.145000e+002, 9.809696e+002
6.150000e+002, 9.871655e+002
6.155000e+002, 9.917573e+002
6.160000e+002, 9.964069e+002
6.165000e+002, 1.001717e+003
6.170000e+002, 1.007394e+003
6.175000e+002, 1.011839e+003
6.180000e+002, 1.019364e+003
6.185000e+002, 1.025679e+003
6.190000e+002, 1.033393e+003
6.195000e+002, 1.041583e+003
6.200000e+002, 1.050601e+003
6.205000e+002, 1.060479e+003
6.210000e+002, 1.071401e+003
6.215000e+002, 1.079581e+003
6.220000e+002, 1.091032e+003
6.225000e+002, 1.101465e+003
6.230000e+002, 1.112081e+003
6.235000e+002, 1.124046e+003
6.240000e+002, 1.134817e+003
6.245000e+002, 1.145972e+003
6.250000e+002, 1.156466e+003
6.255000e+002, 1.168005e+003
6.260000e+002, 1.180552e+003
6.265000e+002, 1.191331e+003
6.270000e+002, 1.203974e+003
6.275000e+002, 1.216612e+003
6.280000e+002, 1.227690e+003
6.285000e+002, 1.239657e+003
6.290000e+002, 1.252622e+003
6.295000e+002, 1.264437e+003
6.300000e+002, 1.277086e+003
6.305000e+002, 1.291234e+003
6.310000e+002, 1.305472e+003
6.315000e+002, 1.320443e+003
6.320000e+002, 1.333125e+003
6.325000e+002, 1.345035e+003
6.330000e+002, 1.358492e+003
6.335000e+002, 1.370452e+003
